20230424_F4_PCT-C3-SO3Na 2 mgml_H2SO4 0p05 N - RawData
Wavelength nm.,Abs.
200.00,0.684
201.00,0.688
202.00,0.697
203.00,0.692
204.00,0.677
205.00,0.666
206.00,0.662
207.00,0.651
208.00,0.633
209.00,0.608
210.00,0.584
211.00,0.557
212.00,0.522
213.00,0.489
214.00,0.461
215.00,0.434
216.00,0.402
217.00,0.375
218.00,0.349
219.00,0.323
220.00,0.304
221.00,0.285
222.00,0.269
223.00,0.255
224.00,0.243
225.00,0.234
226.00,0.227
227.00,0.221
228.00,0.213
229.00,0.208
230.00,0.202
231.00,0.197
232.00,0.192
233.00,0.186
234.00,0.182
235.00,0.177
236.00,0.174
237.00,0.169
238.00,0.164
239.00,0.160
240.00,0.155
241.00,0.150
242.00,0.147
243.00,0.145
244.00,0.142
245.00,0.140
246.00,0.137
247.00,0.136
248.00,0.135
249.00,0.132
250.00,0.130
251.00,0.131
252.00,0.131
253.00,0.130
254.00,0.128
255.00,0.128
256.00,0.127
257.00,0.126
258.00,0.125
259.00,0.124
260.00,0.124
261.00,0.124
262.00,0.124
263.00,0.123
264.00,0.121
265.00,0.121
266.00,0.121
267.00,0.120
268.00,0.119
269.00,0.119
270.00,0.118
271.00,0.118
272.00,0.118
273.00,0.117
274.00,0.117
275.00,0.116
276.00,0.115
277.00,0.114
278.00,0.113
279.00,0.113
280.00,0.112
281.00,0.110
282.00,0.108
283.00,0.105
284.00,0.103
285.00,0.101
286.00,0.101
287.00,0.100
288.00,0.098
289.00,0.096
290.00,0.094
291.00,0.092
292.00,0.091
293.00,0.089
294.00,0.087
295.00,0.086
296.00,0.084
297.00,0.083
298.00,0.081
299.00,0.080
300.00,0.079
301.00,0.077
302.00,0.075
303.00,0.074
304.00,0.074
305.00,0.073
306.00,0.071
307.00,0.070
308.00,0.069
309.00,0.068
310.00,0.067
311.00,0.066
312.00,0.065
313.00,0.064
314.00,0.064
315.00,0.063
316.00,0.063
317.00,0.063
318.00,0.061
319.00,0.059
320.00,0.060
321.00,0.061
322.00,0.060
323.00,0.059
324.00,0.057
325.00,0.059
326.00,0.059
327.00,0.058
328.00,0.059
329.00,0.060
330.00,0.060
331.00,0.059
332.00,0.058
333.00,0.058
334.00,0.058
335.00,0.058
336.00,0.057
337.00,0.057
338.00,0.057
339.00,0.057
340.00,0.058
341.00,0.057
342.00,0.057
343.00,0.060
344.00,0.059
345.00,0.059
346.00,0.059
347.00,0.059
348.00,0.060
349.00,0.060
350.00,0.060
351.00,0.058
352.00,0.058
353.00,0.059
354.00,0.058
355.00,0.058
356.00,0.060
357.00,0.061
358.00,0.066
359.00,0.070
360.00,0.069
361.00,0.066
362.00,0.065
363.00,0.071
364.00,0.071
365.00,0.067
366.00,0.065
367.00,0.063
368.00,0.067
369.00,0.067
370.00,0.066
371.00,0.071
372.00,0.070
373.00,0.066
374.00,0.067
375.00,0.072
376.00,0.076
377.00,0.075
378.00,0.070
379.00,0.071
380.00,0.073
381.00,0.072
382.00,0.072
383.00,0.075
384.00,0.075
385.00,0.075
386.00,0.075
387.00,0.075
388.00,0.076
389.00,0.076
390.00,0.077
391.00,0.079
392.00,0.082
393.00,0.081
394.00,0.081
395.00,0.082
396.00,0.082
397.00,0.082
398.00,0.084
399.00,0.085
400.00,0.087
401.00,0.088
402.00,0.087
403.00,0.090
404.00,0.091
405.00,0.092
406.00,0.092
407.00,0.093
408.00,0.095
409.00,0.095
410.00,0.095
411.00,0.095
412.00,0.096
413.00,0.096
414.00,0.097
415.00,0.098
416.00,0.099
417.00,0.101
418.00,0.102
419.00,0.101
420.00,0.102
421.00,0.101
422.00,0.101
423.00,0.104
424.00,0.106
425.00,0.106
426.00,0.108
427.00,0.110
428.00,0.109
429.00,0.109
430.00,0.108
431.00,0.109
432.00,0.112
433.00,0.113
434.00,0.114
435.00,0.114
436.00,0.115
437.00,0.116
438.00,0.117
439.00,0.118
440.00,0.119
441.00,0.120
442.00,0.121
443.00,0.121
444.00,0.122
445.00,0.123
446.00,0.124
447.00,0.127
448.00,0.128
449.00,0.129
450.00,0.130
451.00,0.131
452.00,0.132
453.00,0.133
454.00,0.135
455.00,0.135
456.00,0.136
457.00,0.137
458.00,0.138
459.00,0.139
460.00,0.140
461.00,0.142
462.00,0.142
463.00,0.143
464.00,0.144
465.00,0.145
466.00,0.147
467.00,0.148
468.00,0.149
469.00,0.150
470.00,0.152
471.00,0.153
472.00,0.154
473.00,0.156
474.00,0.156
475.00,0.157
476.00,0.159
477.00,0.161
478.00,0.162
479.00,0.163
480.00,0.164
481.00,0.166
482.00,0.166
483.00,0.168
484.00,0.169
485.00,0.171
486.00,0.173
487.00,0.174
488.00,0.175
489.00,0.177
490.00,0.178
491.00,0.180
492.00,0.181
493.00,0.183
494.00,0.184
495.00,0.185
496.00,0.187
497.00,0.188
498.00,0.189
499.00,0.191
500.00,0.193
501.00,0.193
502.00,0.195
503.00,0.197
504.00,0.198
505.00,0.200
506.00,0.201
507.00,0.203
508.00,0.204
509.00,0.206
510.00,0.208
511.00,0.210
512.00,0.211
513.00,0.213
514.00,0.214
515.00,0.216
516.00,0.217
517.00,0.219
518.00,0.221
519.00,0.223
520.00,0.224
521.00,0.225
522.00,0.227
523.00,0.228
524.00,0.230
525.00,0.232
526.00,0.234
527.00,0.235
528.00,0.237
529.00,0.239
530.00,0.241
531.00,0.243
532.00,0.244
533.00,0.246
534.00,0.248
535.00,0.249
536.00,0.251
537.00,0.253
538.00,0.255
539.00,0.256
540.00,0.257
541.00,0.259
542.00,0.261
543.00,0.263
544.00,0.264
545.00,0.266
546.00,0.268
547.00,0.270
548.00,0.272
549.00,0.272
550.00,0.274
551.00,0.276
552.00,0.278
553.00,0.280
554.00,0.281
555.00,0.282
556.00,0.283
557.00,0.285
558.00,0.287
559.00,0.288
560.00,0.290
561.00,0.291
562.00,0.293
563.00,0.294
564.00,0.296
565.00,0.297
566.00,0.298
567.00,0.300
568.00,0.301
569.00,0.303
570.00,0.305
571.00,0.306
572.00,0.307
573.00,0.308
574.00,0.310
575.00,0.312
576.00,0.313
577.00,0.315
578.00,0.316
579.00,0.316
580.00,0.317
581.00,0.319
582.00,0.320
583.00,0.322
584.00,0.323
585.00,0.324
586.00,0.326
587.00,0.326
588.00,0.327
589.00,0.327
590.00,0.328
591.00,0.329
592.00,0.330
593.00,0.331
594.00,0.331
595.00,0.332
596.00,0.332
597.00,0.333
598.00,0.333
599.00,0.333
600.00,0.334
601.00,0.334
602.00,0.334
603.00,0.334
604.00,0.333
605.00,0.333
606.00,0.333
607.00,0.332
608.00,0.332
609.00,0.331
610.00,0.331
611.00,0.330
612.00,0.330
613.00,0.330
614.00,0.330
615.00,0.329
616.00,0.328
617.00,0.328
618.00,0.327
619.00,0.326
620.00,0.325
621.00,0.324
622.00,0.324
623.00,0.323
624.00,0.322
625.00,0.321
626.00,0.320
627.00,0.319
628.00,0.318
629.00,0.318
630.00,0.318
631.00,0.317
632.00,0.316
633.00,0.316
634.00,0.316
635.00,0.315
636.00,0.314
637.00,0.313
638.00,0.313
639.00,0.312
640.00,0.312
641.00,0.311
642.00,0.310
643.00,0.309
644.00,0.307
645.00,0.306
646.00,0.305
647.00,0.303
648.00,0.301
649.00,0.300
650.00,0.298
651.00,0.296
652.00,0.295
653.00,0.292
654.00,0.290
655.00,0.288
656.00,0.285
657.00,0.282
658.00,0.280
659.00,0.278
660.00,0.275
661.00,0.271
662.00,0.268
663.00,0.264
664.00,0.261
665.00,0.257
666.00,0.254
667.00,0.249
668.00,0.245
669.00,0.241
670.00,0.237
671.00,0.233
672.00,0.230
673.00,0.225
674.00,0.222
675.00,0.219
676.00,0.214
677.00,0.210
678.00,0.206
679.00,0.203
680.00,0.199
681.00,0.195
682.00,0.192
683.00,0.188
684.00,0.185
685.00,0.182
686.00,0.179
687.00,0.175
688.00,0.172
689.00,0.169
690.00,0.165
691.00,0.163
692.00,0.161
693.00,0.158
694.00,0.156
695.00,0.154
696.00,0.152
697.00,0.150
698.00,0.148
699.00,0.147
700.00,0.145
701.00,0.145
702.00,0.144
703.00,0.141
704.00,0.140
705.00,0.139
706.00,0.138
707.00,0.136
708.00,0.135
709.00,0.134
710.00,0.134
711.00,0.133
712.00,0.133
713.00,0.132
714.00,0.131
715.00,0.130
716.00,0.129
717.00,0.129
718.00,0.129
719.00,0.129
720.00,0.128
721.00,0.127
722.00,0.127
723.00,0.127
724.00,0.127
725.00,0.126
726.00,0.125
727.00,0.126
728.00,0.125
729.00,0.125
730.00,0.125
731.00,0.125
732.00,0.124
733.00,0.124
734.00,0.125
735.00,0.124
736.00,0.124
737.00,0.124
738.00,0.123
739.00,0.123
740.00,0.124
741.00,0.125
742.00,0.125
743.00,0.125
744.00,0.125
745.00,0.124
746.00,0.124
747.00,0.124
748.00,0.125
749.00,0.124
750.00,0.125
751.00,0.125
752.00,0.125
753.00,0.125
754.00,0.125
755.00,0.126
756.00,0.126
757.00,0.126
758.00,0.125
759.00,0.124
760.00,0.126
761.00,0.127
762.00,0.126
763.00,0.127
764.00,0.127
765.00,0.127
766.00,0.127
767.00,0.127
768.00,0.127
769.00,0.128
770.00,0.128
771.00,0.128
772.00,0.128
773.00,0.129
774.00,0.129
775.00,0.129
776.00,0.130
777.00,0.130
778.00,0.129
779.00,0.129
780.00,0.131
781.00,0.131
782.00,0.130
783.00,0.129
784.00,0.130
785.00,0.131
786.00,0.131
787.00,0.132
788.00,0.132
789.00,0.131
790.00,0.132
791.00,0.133
792.00,0.133
793.00,0.131
794.00,0.132
795.00,0.133
796.00,0.134
797.00,0.133
798.00,0.134
799.00,0.135
800.00,0.134
801.00,0.134
802.00,0.134
803.00,0.135
804.00,0.135
805.00,0.136
806.00,0.136
807.00,0.136
808.00,0.135
809.00,0.136
810.00,0.138
811.00,0.137
812.00,0.136
813.00,0.138
814.00,0.139
815.00,0.138
816.00,0.139
817.00,0.139
818.00,0.139
819.00,0.139
820.00,0.140
821.00,0.141
822.00,0.140
823.00,0.140
824.00,0.140
825.00,0.141
826.00,0.141
827.00,0.141
828.00,0.142
829.00,0.141
830.00,0.140
831.00,0.142
832.00,0.143
833.00,0.143
834.00,0.143
835.00,0.143
836.00,0.144
837.00,0.144
838.00,0.144
839.00,0.145
840.00,0.145
841.00,0.145
842.00,0.145
843.00,0.147
844.00,0.149
845.00,0.148
846.00,0.148
847.00,0.148
848.00,0.148
849.00,0.149
850.00,0.148
851.00,0.148
852.00,0.150
853.00,0.148
854.00,0.149
855.00,0.149
856.00,0.150
857.00,0.152
858.00,0.150
859.00,0.149
860.00,0.151
861.00,0.151
862.00,0.151
863.00,0.152
864.00,0.153
865.00,0.153
866.00,0.152
867.00,0.154
868.00,0.156
869.00,0.156
870.00,0.157
871.00,0.157
872.00,0.155
873.00,0.155
874.00,0.153
875.00,0.153
876.00,0.158
877.00,0.158
878.00,0.156
879.00,0.156
880.00,0.163
881.00,0.169
882.00,0.172
883.00,0.176
884.00,0.174
885.00,0.173
886.00,0.172
887.00,0.171
888.00,0.172
889.00,0.172
890.00,0.173
891.00,0.174
892.00,0.173
893.00,0.172
894.00,0.172
895.00,0.171
896.00,0.171
897.00,0.172
898.00,0.172
899.00,0.171
900.00,0.175
901.00,0.177
902.00,0.174
903.00,0.175
904.00,0.176
905.00,0.173
906.00,0.173
907.00,0.177
908.00,0.179
909.00,0.177
910.00,0.175
911.00,0.176
912.00,0.177
913.00,0.176
914.00,0.174
915.00,0.175
916.00,0.176
917.00,0.175
918.00,0.173
919.00,0.173
920.00,0.176
921.00,0.177
922.00,0.176
923.00,0.174
924.00,0.172
925.00,0.175
926.00,0.177
927.00,0.176
928.00,0.175
929.00,0.175
930.00,0.175
931.00,0.175
932.00,0.175
933.00,0.174
934.00,0.173
935.00,0.173
936.00,0.174
937.00,0.173
938.00,0.173
939.00,0.172
940.00,0.172
941.00,0.172
942.00,0.171
943.00,0.171
944.00,0.172
945.00,0.172
946.00,0.171
947.00,0.173
948.00,0.174
949.00,0.173
950.00,0.172
951.00,0.172
952.00,0.171
953.00,0.171
954.00,0.174
955.00,0.175
956.00,0.174
957.00,0.173
958.00,0.173
959.00,0.174
960.00,0.173
961.00,0.175
962.00,0.176
963.00,0.173
964.00,0.173
965.00,0.173
966.00,0.172
967.00,0.172
968.00,0.171
969.00,0.172
970.00,0.173
971.00,0.173
972.00,0.173
973.00,0.173
974.00,0.173
975.00,0.172
976.00,0.173
977.00,0.173
978.00,0.172
979.00,0.172
980.00,0.172
981.00,0.172
982.00,0.172
983.00,0.171
984.00,0.171
985.00,0.171
986.00,0.171
987.00,0.171
988.00,0.171
989.00,0.172
990.00,0.172
991.00,0.172
992.00,0.172
993.00,0.171
994.00,0.171
995.00,0.170
996.00,0.170
997.00,0.169
998.00,0.169
999.00,0.169
1000.00,0.170
1001.00,0.169
1002.00,0.167
1003.00,0.168
1004.00,0.168
1005.00,0.167
1006.00,0.167
1007.00,0.166
1008.00,0.166
1009.00,0.166
1010.00,0.166
1011.00,0.166
1012.00,0.165
1013.00,0.166
1014.00,0.166
1015.00,0.166
1016.00,0.165
1017.00,0.164
1018.00,0.164
1019.00,0.164
1020.00,0.164
1021.00,0.164
1022.00,0.163
1023.00,0.162
1024.00,0.161
1025.00,0.162
1026.00,0.162
1027.00,0.161
1028.00,0.162
1029.00,0.162
1030.00,0.161
1031.00,0.160
1032.00,0.159
1033.00,0.159
1034.00,0.159
1035.00,0.159
1036.00,0.157
1037.00,0.156
1038.00,0.156
1039.00,0.156
1040.00,0.156
1041.00,0.156
1042.00,0.155
1043.00,0.155
1044.00,0.155
1045.00,0.154
1046.00,0.154
1047.00,0.153
1048.00,0.153
1049.00,0.152
1050.00,0.152
1051.00,0.151
1052.00,0.150
1053.00,0.149
1054.00,0.148
1055.00,0.148
1056.00,0.148
1057.00,0.148
1058.00,0.149
1059.00,0.148
1060.00,0.147
1061.00,0.146
1062.00,0.146
1063.00,0.145
1064.00,0.145
1065.00,0.144
1066.00,0.142
1067.00,0.142
1068.00,0.142
1069.00,0.142
1070.00,0.142
1071.00,0.142
1072.00,0.141
1073.00,0.140
1074.00,0.139
1075.00,0.138
1076.00,0.137
1077.00,0.138
1078.00,0.138
1079.00,0.138
1080.00,0.137
1081.00,0.135
1082.00,0.135
1083.00,0.133
1084.00,0.133
1085.00,0.133
1086.00,0.133
1087.00,0.133
1088.00,0.133
1089.00,0.132
1090.00,0.131
1091.00,0.130
1092.00,0.129
1093.00,0.128
1094.00,0.128
1095.00,0.127
1096.00,0.126
1097.00,0.126
1098.00,0.125
1099.00,0.124
1100.00,0.124
1101.00,0.124
1102.00,0.124
1103.00,0.123
1104.00,0.122
1105.00,0.121
1106.00,0.120
1107.00,0.120
1108.00,0.120
1109.00,0.119
1110.00,0.117
1111.00,0.118
1112.00,0.118
1113.00,0.117
1114.00,0.115
1115.00,0.115
1116.00,0.116
1117.00,0.116
1118.00,0.116
1119.00,0.114
1120.00,0.114
1121.00,0.113
1122.00,0.112
1123.00,0.112
1124.00,0.111
1125.00,0.110
1126.00,0.110
1127.00,0.110
1128.00,0.110
1129.00,0.109
1130.00,0.108
1131.00,0.107
1132.00,0.107
1133.00,0.107
1134.00,0.107
1135.00,0.107
1136.00,0.107
1137.00,0.106
1138.00,0.106
1139.00,0.105
1140.00,0.106
1141.00,0.105
1142.00,0.104
1143.00,0.103
1144.00,0.103
1145.00,0.103
1146.00,0.103
1147.00,0.102
1148.00,0.102
1149.00,0.101
1150.00,0.100
1151.00,0.100
1152.00,0.101
1153.00,0.100
1154.00,0.100
1155.00,0.100
1156.00,0.100
1157.00,0.099
1158.00,0.098
1159.00,0.098
1160.00,0.097
1161.00,0.097
1162.00,0.098
1163.00,0.097
1164.00,0.096
1165.00,0.097
1166.00,0.096
1167.00,0.095
1168.00,0.094
1169.00,0.094
1170.00,0.094
1171.00,0.093
1172.00,0.093
1173.00,0.093
1174.00,0.094
1175.00,0.092
1176.00,0.091
1177.00,0.091
1178.00,0.091
1179.00,0.092
1180.00,0.090
1181.00,0.089
1182.00,0.089
1183.00,0.090
1184.00,0.090
1185.00,0.090
1186.00,0.089
1187.00,0.088
1188.00,0.088
1189.00,0.088
1190.00,0.087
1191.00,0.087
1192.00,0.087
1193.00,0.087
1194.00,0.087
1195.00,0.087
1196.00,0.086
1197.00,0.085
1198.00,0.087
1199.00,0.086
1200.00,0.085
1201.00,0.084
1202.00,0.083
1203.00,0.084
1204.00,0.084
1205.00,0.084
1206.00,0.084
1207.00,0.084
1208.00,0.084
1209.00,0.083
1210.00,0.083
1211.00,0.084
1212.00,0.083
1213.00,0.083
1214.00,0.083
1215.00,0.082
1216.00,0.082
1217.00,0.082
1218.00,0.082
1219.00,0.081
1220.00,0.082
1221.00,0.082
1222.00,0.081
1223.00,0.081
1224.00,0.082
1225.00,0.082
1226.00,0.082
1227.00,0.082
1228.00,0.082
1229.00,0.082
1230.00,0.082
1231.00,0.082
1232.00,0.081
1233.00,0.081
1234.00,0.081
1235.00,0.081
1236.00,0.081
1237.00,0.080
1238.00,0.080
1239.00,0.080
1240.00,0.081
1241.00,0.081
1242.00,0.081
1243.00,0.081
1244.00,0.081
1245.00,0.081
1246.00,0.081
1247.00,0.079
1248.00,0.079
1249.00,0.079
1250.00,0.079
1251.00,0.079
1252.00,0.079
1253.00,0.080
1254.00,0.080
1255.00,0.079
1256.00,0.079
1257.00,0.079
1258.00,0.078
1259.00,0.078
1260.00,0.078
1261.00,0.078
1262.00,0.078
1263.00,0.078
1264.00,0.078
1265.00,0.078
1266.00,0.078
1267.00,0.078
1268.00,0.078
1269.00,0.077
1270.00,0.078
1271.00,0.079
1272.00,0.079
1273.00,0.080
1274.00,0.080
1275.00,0.080
1276.00,0.078
1277.00,0.078
1278.00,0.077
1279.00,0.077
1280.00,0.077
1281.00,0.078
1282.00,0.079
1283.00,0.080
1284.00,0.080
1285.00,0.081
1286.00,0.080
1287.00,0.080
1288.00,0.079
1289.00,0.078
1290.00,0.078
1291.00,0.078
1292.00,0.079
1293.00,0.078
1294.00,0.079
1295.00,0.080
1296.00,0.080
1297.00,0.080
1298.00,0.079
1299.00,0.079
1300.00,0.079
1301.00,0.079
1302.00,0.079
1303.00,0.079
1304.00,0.079
1305.00,0.080
1306.00,0.080
1307.00,0.080
1308.00,0.081
1309.00,0.081
1310.00,0.082
1311.00,0.081
1312.00,0.081
1313.00,0.082
1314.00,0.082
1315.00,0.083
1316.00,0.083
1317.00,0.083
1318.00,0.084
1319.00,0.085
1320.00,0.085
1321.00,0.084
1322.00,0.084
1323.00,0.083
1324.00,0.083
1325.00,0.084
1326.00,0.085
1327.00,0.085
1328.00,0.085
1329.00,0.086
1330.00,0.086
1331.00,0.086
1332.00,0.086
1333.00,0.085
1334.00,0.085
1335.00,0.085
1336.00,0.085
1337.00,0.086
1338.00,0.087
1339.00,0.088
1340.00,0.088
1341.00,0.088
1342.00,0.088
1343.00,0.088
1344.00,0.088
1345.00,0.088
1346.00,0.088
1347.00,0.088
1348.00,0.089
1349.00,0.089
1350.00,0.089
1351.00,0.090
1352.00,0.090
1353.00,0.091
1354.00,0.091
1355.00,0.090
1356.00,0.091
1357.00,0.092
1358.00,0.092
1359.00,0.092
1360.00,0.094
1361.00,0.096
1362.00,0.095
1363.00,0.093
1364.00,0.091
1365.00,0.093
1366.00,0.092
1367.00,0.094
1368.00,0.096
1369.00,0.097
1370.00,0.096
1371.00,0.096
1372.00,0.097
1373.00,0.097
1374.00,0.097
1375.00,0.098
1376.00,0.099
1377.00,0.099
1378.00,0.099
1379.00,0.103
1380.00,0.102
1381.00,0.100
1382.00,0.105
1383.00,0.108
1384.00,0.105
1385.00,0.106
1386.00,0.107
1387.00,0.109
1388.00,0.111
1389.00,0.111
1390.00,0.112
1391.00,0.113
1392.00,0.117
1393.00,0.121
1394.00,0.122
1395.00,0.124
1396.00,0.126
1397.00,0.128
1398.00,0.129
1399.00,0.131
1400.00,0.133
1401.00,0.135
1402.00,0.136
1403.00,0.139
1404.00,0.140
1405.00,0.139
1406.00,0.142
1407.00,0.145
1408.00,0.147
1409.00,0.149
1410.00,0.148
1411.00,0.149
1412.00,0.151
1413.00,0.154
1414.00,0.155
1415.00,0.155
1416.00,0.155
1417.00,0.157
1418.00,0.159
1419.00,0.160
1420.00,0.160
1421.00,0.160
1422.00,0.161
1423.00,0.162
1424.00,0.163
1425.00,0.165
1426.00,0.166
1427.00,0.165
1428.00,0.167
1429.00,0.168
1430.00,0.168
1431.00,0.169
1432.00,0.170
1433.00,0.172
1434.00,0.173
1435.00,0.173
1436.00,0.174
1437.00,0.174
1438.00,0.174
1439.00,0.174
1440.00,0.174
1441.00,0.175
1442.00,0.176
1443.00,0.176
1444.00,0.177
1445.00,0.177
1446.00,0.179
1447.00,0.178
1448.00,0.178
1449.00,0.178
1450.00,0.178
1451.00,0.178
1452.00,0.178
1453.00,0.178
1454.00,0.179
1455.00,0.179
1456.00,0.180
1457.00,0.180
1458.00,0.180
1459.00,0.180
1460.00,0.180
1461.00,0.180
1462.00,0.180
1463.00,0.180
1464.00,0.179
1465.00,0.179
1466.00,0.179
1467.00,0.178
1468.00,0.178
1469.00,0.178
1470.00,0.177
1471.00,0.177
1472.00,0.176
1473.00,0.176
1474.00,0.177
1475.00,0.176
1476.00,0.176
1477.00,0.175
1478.00,0.174
1479.00,0.173
1480.00,0.173
1481.00,0.172
1482.00,0.171
1483.00,0.171
1484.00,0.171
1485.00,0.171
1486.00,0.171
1487.00,0.170
1488.00,0.169
1489.00,0.169
1490.00,0.168
1491.00,0.167
1492.00,0.167
1493.00,0.167
1494.00,0.166
1495.00,0.166
1496.00,0.165
1497.00,0.164
1498.00,0.164
1499.00,0.163
1500.00,0.163
1501.00,0.163
1502.00,0.162
1503.00,0.161
1504.00,0.161
1505.00,0.161
1506.00,0.160
1507.00,0.160
1508.00,0.160
1509.00,0.159
1510.00,0.158
1511.00,0.158
1512.00,0.157
1513.00,0.157
1514.00,0.157
1515.00,0.157
1516.00,0.157
1517.00,0.156
1518.00,0.155
1519.00,0.155
1520.00,0.154
1521.00,0.153
1522.00,0.153
1523.00,0.154
1524.00,0.153
1525.00,0.153
1526.00,0.153
1527.00,0.153
1528.00,0.152
1529.00,0.151
1530.00,0.152
1531.00,0.151
1532.00,0.151
1533.00,0.151
1534.00,0.150
1535.00,0.151
1536.00,0.151
1537.00,0.151
1538.00,0.150
1539.00,0.150
1540.00,0.150
1541.00,0.150
1542.00,0.150
1543.00,0.150
1544.00,0.150
1545.00,0.150
1546.00,0.149
1547.00,0.149
1548.00,0.148
1549.00,0.147
1550.00,0.148
1551.00,0.149
1552.00,0.149
1553.00,0.149
1554.00,0.149
1555.00,0.149
1556.00,0.149
1557.00,0.149
1558.00,0.148
1559.00,0.148
1560.00,0.148
1561.00,0.148
1562.00,0.148
1563.00,0.148
1564.00,0.148
1565.00,0.148
1566.00,0.148
1567.00,0.148
1568.00,0.148
1569.00,0.148
1570.00,0.148
1571.00,0.148
1572.00,0.149
1573.00,0.148
1574.00,0.149
1575.00,0.149
1576.00,0.150
1577.00,0.149
1578.00,0.149
1579.00,0.149
1580.00,0.149
1581.00,0.149
1582.00,0.150
1583.00,0.150
1584.00,0.150
1585.00,0.150
1586.00,0.150
1587.00,0.150
1588.00,0.150
1589.00,0.149
1590.00,0.150
1591.00,0.150
1592.00,0.150
1593.00,0.150
1594.00,0.150
1595.00,0.151
1596.00,0.150
1597.00,0.150
1598.00,0.150
1599.00,0.151
1600.00,0.151
1601.00,0.152
1602.00,0.152
1603.00,0.152
1604.00,0.152
1605.00,0.152
1606.00,0.152
1607.00,0.152
1608.00,0.152
1609.00,0.152
1610.00,0.152
1611.00,0.151
1612.00,0.151
1613.00,0.152
1614.00,0.152
1615.00,0.153
1616.00,0.153
1617.00,0.153
1618.00,0.154
1619.00,0.155
1620.00,0.155
1621.00,0.156
1622.00,0.156
1623.00,0.156
1624.00,0.156
1625.00,0.156
1626.00,0.156
1627.00,0.155
1628.00,0.155
1629.00,0.155
1630.00,0.156
1631.00,0.156
1632.00,0.156
1633.00,0.157
1634.00,0.158
1635.00,0.158
1636.00,0.159
1637.00,0.159
1638.00,0.159
1639.00,0.158
1640.00,0.158
1641.00,0.159
1642.00,0.159
1643.00,0.159
1644.00,0.159
1645.00,0.159
1646.00,0.159
1647.00,0.159
1648.00,0.159
1649.00,0.160
1650.00,0.160
1651.00,0.161
1652.00,0.161
1653.00,0.162
1654.00,0.163
1655.00,0.163
1656.00,0.162
1657.00,0.162
1658.00,0.162
1659.00,0.162
1660.00,0.162
1661.00,0.163
1662.00,0.163
1663.00,0.164
1664.00,0.164
1665.00,0.164
1666.00,0.164
1667.00,0.164
1668.00,0.164
1669.00,0.164
1670.00,0.164
1671.00,0.165
1672.00,0.166
1673.00,0.167
1674.00,0.166
1675.00,0.167
1676.00,0.167
1677.00,0.167
1678.00,0.167
1679.00,0.167
1680.00,0.167
1681.00,0.167
1682.00,0.167
1683.00,0.168
1684.00,0.167
1685.00,0.168
1686.00,0.168
1687.00,0.168
1688.00,0.168
1689.00,0.169
1690.00,0.169
1691.00,0.170
1692.00,0.171
1693.00,0.172
1694.00,0.172
1695.00,0.171
1696.00,0.171
1697.00,0.171
1698.00,0.172
1699.00,0.172
1700.00,0.172
1701.00,0.173
1702.00,0.172
1703.00,0.173
1704.00,0.174
1705.00,0.174
1706.00,0.174
1707.00,0.174
1708.00,0.175
1709.00,0.175
1710.00,0.176
1711.00,0.176
1712.00,0.176
1713.00,0.176
1714.00,0.176
1715.00,0.177
1716.00,0.177
1717.00,0.177
1718.00,0.177
1719.00,0.177
1720.00,0.178
1721.00,0.179
1722.00,0.180
1723.00,0.180
1724.00,0.180
1725.00,0.180
1726.00,0.181
1727.00,0.181
1728.00,0.182
1729.00,0.182
1730.00,0.183
1731.00,0.183
1732.00,0.183
1733.00,0.184
1734.00,0.184
1735.00,0.184
1736.00,0.184
1737.00,0.185
1738.00,0.185
1739.00,0.185
1740.00,0.186
1741.00,0.187
1742.00,0.187
1743.00,0.187
1744.00,0.188
1745.00,0.188
1746.00,0.188
1747.00,0.188
1748.00,0.188
1749.00,0.189
1750.00,0.189
1751.00,0.190
1752.00,0.191
1753.00,0.191
1754.00,0.192
1755.00,0.192
1756.00,0.192
1757.00,0.193
1758.00,0.193
1759.00,0.194
1760.00,0.194
1761.00,0.194
1762.00,0.195
1763.00,0.195
1764.00,0.195
1765.00,0.195
1766.00,0.195
1767.00,0.196
1768.00,0.197
1769.00,0.198
1770.00,0.198
1771.00,0.199
1772.00,0.199
1773.00,0.199
1774.00,0.200
1775.00,0.199
1776.00,0.200
1777.00,0.201
1778.00,0.200
1779.00,0.201
1780.00,0.202
1781.00,0.202
1782.00,0.203
1783.00,0.202
1784.00,0.202
1785.00,0.202
1786.00,0.202
1787.00,0.202
1788.00,0.203
1789.00,0.205
1790.00,0.205
1791.00,0.204
1792.00,0.205
1793.00,0.206
1794.00,0.205
1795.00,0.206
1796.00,0.207
1797.00,0.207
1798.00,0.207
1799.00,0.207
1800.00,0.208
1801.00,0.208
1802.00,0.208
1803.00,0.208
1804.00,0.209
1805.00,0.209
1806.00,0.208
1807.00,0.209
1808.00,0.209
1809.00,0.209
1810.00,0.209
1811.00,0.209
1812.00,0.209
1813.00,0.209
1814.00,0.211
1815.00,0.211
1816.00,0.211
1817.00,0.212
1818.00,0.210
1819.00,0.212
1820.00,0.215
1821.00,0.212
1822.00,0.211
1823.00,0.213
1824.00,0.212
1825.00,0.212
1826.00,0.215
1827.00,0.216
1828.00,0.215
1829.00,0.213
1830.00,0.213
1831.00,0.215
1832.00,0.215
1833.00,0.213
1834.00,0.214
1835.00,0.217
1836.00,0.219
1837.00,0.220
1838.00,0.218
1839.00,0.219
1840.00,0.222
1841.00,0.220
1842.00,0.220
1843.00,0.223
1844.00,0.223
1845.00,0.227
1846.00,0.229
1847.00,0.230
1848.00,0.231
1849.00,0.227
1850.00,0.226
1851.00,0.227
1852.00,0.228
1853.00,0.231
1854.00,0.232
1855.00,0.232
1856.00,0.233
1857.00,0.231
1858.00,0.229
1859.00,0.230
1860.00,0.232
1861.00,0.235
1862.00,0.236
1863.00,0.238
1864.00,0.241
1865.00,0.245
1866.00,0.248
1867.00,0.252
1868.00,0.256
1869.00,0.256
1870.00,0.254
1871.00,0.255
1872.00,0.267
1873.00,0.269
1874.00,0.266
1875.00,0.271
1876.00,0.276
1877.00,0.280
1878.00,0.285
1879.00,0.290
1880.00,0.294
1881.00,0.297
1882.00,0.304
1883.00,0.312
1884.00,0.319
1885.00,0.326
1886.00,0.334
1887.00,0.343
1888.00,0.352
1889.00,0.358
1890.00,0.365
1891.00,0.376
1892.00,0.386
1893.00,0.393
1894.00,0.403
1895.00,0.411
1896.00,0.419
1897.00,0.430
1898.00,0.439
1899.00,0.447
1900.00,0.454
1901.00,0.459
1902.00,0.466
1903.00,0.481
1904.00,0.488
1905.00,0.488
1906.00,0.497
1907.00,0.502
1908.00,0.505
1909.00,0.509
1910.00,0.515
1911.00,0.518
1912.00,0.516
1913.00,0.519
1914.00,0.527
1915.00,0.534
1916.00,0.536
1917.00,0.538
1918.00,0.543
1919.00,0.548
1920.00,0.550
1921.00,0.550
1922.00,0.551
1923.00,0.551
1924.00,0.547
1925.00,0.549
1926.00,0.551
1927.00,0.554
1928.00,0.556
1929.00,0.556
1930.00,0.557
1931.00,0.556
1932.00,0.556
1933.00,0.557
1934.00,0.553
1935.00,0.551
1936.00,0.553
1937.00,0.553
1938.00,0.551
1939.00,0.549
1940.00,0.549
1941.00,0.549
1942.00,0.546
1943.00,0.542
1944.00,0.540
1945.00,0.538
1946.00,0.538
1947.00,0.535
1948.00,0.534
1949.00,0.532
1950.00,0.528
1951.00,0.526
1952.00,0.524
1953.00,0.522
1954.00,0.520
1955.00,0.517
1956.00,0.515
1957.00,0.514
1958.00,0.511
1959.00,0.509
1960.00,0.508
1961.00,0.506
1962.00,0.503
1963.00,0.501
1964.00,0.498
1965.00,0.494
1966.00,0.491
1967.00,0.489
1968.00,0.486
1969.00,0.484
1970.00,0.484
1971.00,0.480
1972.00,0.477
1973.00,0.474
1974.00,0.473
1975.00,0.471
1976.00,0.469
1977.00,0.466
1978.00,0.465
1979.00,0.463
1980.00,0.461
1981.00,0.459
1982.00,0.456
1983.00,0.454
1984.00,0.452
1985.00,0.450
1986.00,0.448
1987.00,0.445
1988.00,0.443
1989.00,0.442
1990.00,0.439
1991.00,0.437
1992.00,0.435
1993.00,0.433
1994.00,0.433
1995.00,0.431
1996.00,0.429
1997.00,0.426
1998.00,0.426
1999.00,0.424
2000.00,0.422
2001.00,0.419
2002.00,0.417
2003.00,0.416
2004.00,0.415
2005.00,0.413
2006.00,0.411
2007.00,0.411
2008.00,0.409
2009.00,0.405
2010.00,0.405
2011.00,0.406
2012.00,0.404
2013.00,0.402
2014.00,0.401
2015.00,0.399
2016.00,0.398
2017.00,0.396
2018.00,0.395
2019.00,0.393
2020.00,0.393
2021.00,0.392
2022.00,0.390
2023.00,0.389
2024.00,0.388
2025.00,0.387
2026.00,0.386
2027.00,0.384
2028.00,0.382
2029.00,0.381
2030.00,0.380
2031.00,0.379
2032.00,0.379
2033.00,0.377
2034.00,0.376
2035.00,0.375
2036.00,0.372
2037.00,0.373
2038.00,0.373
2039.00,0.372
2040.00,0.372
2041.00,0.372
2042.00,0.370
2043.00,0.369
2044.00,0.369
2045.00,0.368
2046.00,0.367
2047.00,0.365
2048.00,0.363
2049.00,0.362
2050.00,0.361
2051.00,0.359
2052.00,0.360
2053.00,0.359
2054.00,0.358
2055.00,0.358
2056.00,0.356
2057.00,0.356
2058.00,0.355
2059.00,0.355
2060.00,0.356
2061.00,0.355
2062.00,0.354
2063.00,0.354
2064.00,0.353
2065.00,0.352
2066.00,0.351
2067.00,0.350
2068.00,0.351
2069.00,0.350
2070.00,0.349
2071.00,0.349
2072.00,0.350
2073.00,0.349
2074.00,0.347
2075.00,0.348
2076.00,0.347
2077.00,0.345
2078.00,0.344
2079.00,0.344
2080.00,0.344
2081.00,0.343
2082.00,0.344
2083.00,0.345
2084.00,0.343
2085.00,0.341
2086.00,0.341
2087.00,0.340
2088.00,0.340
2089.00,0.341
2090.00,0.342
2091.00,0.340
2092.00,0.338
2093.00,0.339
2094.00,0.338
2095.00,0.339
2096.00,0.338
2097.00,0.337
2098.00,0.337
2099.00,0.337
2100.00,0.337
2101.00,0.336
2102.00,0.336
2103.00,0.335
2104.00,0.335
2105.00,0.334
2106.00,0.333
2107.00,0.332
2108.00,0.333
2109.00,0.332
2110.00,0.331
2111.00,0.331
2112.00,0.330
2113.00,0.332
2114.00,0.332
2115.00,0.331
2116.00,0.330
2117.00,0.331
2118.00,0.331
2119.00,0.331
2120.00,0.332
2121.00,0.331
2122.00,0.330
2123.00,0.330
2124.00,0.330
2125.00,0.330
2126.00,0.329
2127.00,0.329
2128.00,0.330
2129.00,0.330
2130.00,0.330
2131.00,0.330
2132.00,0.330
2133.00,0.329
2134.00,0.328
2135.00,0.329
2136.00,0.328
2137.00,0.329
2138.00,0.328
2139.00,0.330
2140.00,0.329
2141.00,0.328
2142.00,0.328
2143.00,0.327
2144.00,0.327
2145.00,0.327
2146.00,0.328
2147.00,0.327
2148.00,0.327
2149.00,0.329
2150.00,0.328
2151.00,0.330
2152.00,0.330
2153.00,0.328
2154.00,0.328
2155.00,0.328
2156.00,0.329
2157.00,0.329
2158.00,0.330
2159.00,0.331
2160.00,0.332
2161.00,0.332
2162.00,0.330
2163.00,0.328
2164.00,0.328
2165.00,0.329
2166.00,0.329
2167.00,0.328
2168.00,0.329
2169.00,0.328
2170.00,0.329
2171.00,0.329
2172.00,0.329
2173.00,0.330
2174.00,0.330
2175.00,0.332
2176.00,0.331
2177.00,0.332
2178.00,0.334
2179.00,0.334
2180.00,0.333
2181.00,0.332
2182.00,0.333
2183.00,0.332
2184.00,0.331
2185.00,0.334
2186.00,0.335
2187.00,0.334
2188.00,0.333
2189.00,0.333
2190.00,0.332
2191.00,0.333
2192.00,0.333
2193.00,0.332
2194.00,0.335
2195.00,0.335
2196.00,0.333
2197.00,0.335
2198.00,0.333
2199.00,0.334
2200.00,0.335
2201.00,0.333
2202.00,0.334
2203.00,0.335
2204.00,0.336
2205.00,0.337
2206.00,0.337
2207.00,0.337
2208.00,0.337
2209.00,0.338
2210.00,0.339
2211.00,0.337
2212.00,0.337
2213.00,0.338
2214.00,0.339
2215.00,0.338
2216.00,0.338
2217.00,0.339
2218.00,0.339
2219.00,0.339
2220.00,0.339
2221.00,0.338
2222.00,0.339
2223.00,0.339
2224.00,0.339
2225.00,0.340
2226.00,0.339
2227.00,0.340
2228.00,0.340
2229.00,0.339
2230.00,0.341
2231.00,0.341
2232.00,0.340
2233.00,0.342
2234.00,0.342
2235.00,0.342
2236.00,0.343
2237.00,0.342
2238.00,0.343
2239.00,0.343
2240.00,0.343
2241.00,0.344
2242.00,0.344
2243.00,0.346
2244.00,0.346
2245.00,0.347
2246.00,0.349
2247.00,0.347
2248.00,0.346
2249.00,0.348
2250.00,0.349
2251.00,0.350
2252.00,0.350
2253.00,0.349
2254.00,0.350
2255.00,0.350
2256.00,0.350
2257.00,0.350
2258.00,0.350
2259.00,0.350
2260.00,0.351
2261.00,0.352
2262.00,0.353
2263.00,0.352
2264.00,0.351
2265.00,0.352
2266.00,0.353
2267.00,0.355
2268.00,0.355
2269.00,0.354
2270.00,0.355
2271.00,0.356
2272.00,0.358
2273.00,0.359
2274.00,0.357
2275.00,0.359
2276.00,0.359
2277.00,0.358
2278.00,0.358
2279.00,0.358
2280.00,0.358
2281.00,0.360
2282.00,0.359
2283.00,0.360
2284.00,0.360
2285.00,0.361
2286.00,0.362
2287.00,0.362
2288.00,0.362
2289.00,0.363
2290.00,0.362
2291.00,0.364
2292.00,0.365
2293.00,0.364
2294.00,0.366
2295.00,0.364
2296.00,0.364
2297.00,0.366
2298.00,0.366
2299.00,0.369
2300.00,0.370
2301.00,0.368
2302.00,0.370
2303.00,0.372
2304.00,0.372
2305.00,0.373
2306.00,0.373
2307.00,0.373
2308.00,0.374
2309.00,0.374
2310.00,0.375
2311.00,0.377
2312.00,0.376
2313.00,0.377
2314.00,0.378
2315.00,0.378
2316.00,0.379
2317.00,0.381
2318.00,0.380
2319.00,0.381
2320.00,0.382
2321.00,0.383
2322.00,0.384
2323.00,0.384
2324.00,0.385
2325.00,0.386
2326.00,0.384
2327.00,0.385
2328.00,0.386
2329.00,0.387
2330.00,0.389
2331.00,0.391
2332.00,0.391
2333.00,0.392
2334.00,0.392
2335.00,0.392
2336.00,0.395
2337.00,0.395
2338.00,0.396
2339.00,0.399
2340.00,0.400
2341.00,0.403
2342.00,0.403
2343.00,0.401
2344.00,0.402
2345.00,0.402
2346.00,0.403
2347.00,0.405
2348.00,0.404
2349.00,0.406
2350.00,0.407
2351.00,0.407
2352.00,0.407
2353.00,0.409
2354.00,0.408
2355.00,0.410
2356.00,0.411
2357.00,0.412
2358.00,0.414
2359.00,0.415
2360.00,0.415
2361.00,0.417
2362.00,0.417
2363.00,0.416
2364.00,0.418
2365.00,0.418
2366.00,0.418
2367.00,0.421
2368.00,0.422
2369.00,0.423
2370.00,0.425
2371.00,0.424
2372.00,0.425
2373.00,0.427
2374.00,0.427
2375.00,0.429
2376.00,0.431
2377.00,0.431
2378.00,0.433
2379.00,0.434
2380.00,0.433
2381.00,0.434
2382.00,0.436
2383.00,0.437
2384.00,0.437
2385.00,0.436
2386.00,0.437
2387.00,0.441
2388.00,0.443
2389.00,0.442
2390.00,0.442
2391.00,0.445
2392.00,0.444
2393.00,0.446
2394.00,0.449
2395.00,0.449
2396.00,0.449
2397.00,0.451
2398.00,0.452
2399.00,0.454
2400.00,0.456
2401.00,0.453
2402.00,0.455
2403.00,0.457
2404.00,0.454
2405.00,0.457
2406.00,0.460
2407.00,0.461
2408.00,0.465
2409.00,0.466
2410.00,0.466
2411.00,0.468
2412.00,0.467
2413.00,0.468
2414.00,0.471
2415.00,0.471
2416.00,0.469
2417.00,0.473
2418.00,0.473
2419.00,0.474
2420.00,0.479
2421.00,0.480
2422.00,0.478
2423.00,0.481
2424.00,0.483
2425.00,0.482
2426.00,0.486
2427.00,0.487
2428.00,0.485
2429.00,0.488
2430.00,0.490
2431.00,0.490
2432.00,0.495
2433.00,0.496
2434.00,0.493
2435.00,0.498
2436.00,0.500
2437.00,0.500
2438.00,0.502
2439.00,0.502
2440.00,0.504
2441.00,0.508
2442.00,0.509
2443.00,0.509
2444.00,0.510
2445.00,0.513
2446.00,0.514
2447.00,0.517
2448.00,0.521
2449.00,0.519
2450.00,0.520
2451.00,0.524
2452.00,0.522
2453.00,0.523
2454.00,0.526
2455.00,0.526
2456.00,0.527
2457.00,0.531
2458.00,0.532
2459.00,0.531
2460.00,0.535
2461.00,0.537
2462.00,0.538
2463.00,0.539
2464.00,0.541
2465.00,0.542
2466.00,0.545
2467.00,0.549
2468.00,0.548
2469.00,0.550
2470.00,0.553
2471.00,0.551
2472.00,0.549
2473.00,0.557
2474.00,0.560
2475.00,0.559
2476.00,0.564
2477.00,0.563
2478.00,0.561
2479.00,0.567
2480.00,0.572
2481.00,0.571
2482.00,0.571
2483.00,0.574
2484.00,0.576
2485.00,0.577
2486.00,0.579
2487.00,0.579
2488.00,0.579
2489.00,0.581
2490.00,0.582
2491.00,0.584
2492.00,0.586
2493.00,0.586
2494.00,0.584
2495.00,0.589
2496.00,0.593
2497.00,0.592
2498.00,0.593
2499.00,0.596
2500.00,0.594
2501.00,0.596
2502.00,0.601
2503.00,0.599
2504.00,0.598
2505.00,0.601
2506.00,0.602
2507.00,0.603
2508.00,0.604
2509.00,0.606
2510.00,0.604
2511.00,0.604
2512.00,0.603
2513.00,0.605
2514.00,0.611
2515.00,0.612
2516.00,0.610
2517.00,0.611
2518.00,0.613
2519.00,0.610
2520.00,0.612
2521.00,0.614
2522.00,0.616
2523.00,0.617
2524.00,0.618
2525.00,0.620
2526.00,0.617
2527.00,0.616
2528.00,0.622
2529.00,0.624
2530.00,0.620
2531.00,0.625
2532.00,0.623
2533.00,0.622
2534.00,0.627
2535.00,0.625
2536.00,0.621
2537.00,0.621
2538.00,0.626
2539.00,0.623
2540.00,0.619
2541.00,0.627
2542.00,0.630
2543.00,0.623
2544.00,0.623
2545.00,0.616
2546.00,0.620
2547.00,0.628
2548.00,0.628
2549.00,0.637
2550.00,0.629
2551.00,0.624
2552.00,0.624
2553.00,0.622
2554.00,0.629
2555.00,0.629
2556.00,0.628
2557.00,0.630
2558.00,0.636
2559.00,0.637
2560.00,0.643
2561.00,0.653
2562.00,0.653
2563.00,0.656
2564.00,0.662
2565.00,0.647
2566.00,0.638
2567.00,0.645
2568.00,0.665
2569.00,0.666
2570.00,0.640
2571.00,0.644
2572.00,0.637
2573.00,0.631
2574.00,0.635
2575.00,0.634
2576.00,0.636
2577.00,0.636
2578.00,0.635
2579.00,0.641
2580.00,0.646
2581.00,0.662
2582.00,0.707
2583.00,0.706
2584.00,0.666
2585.00,0.662
2586.00,0.660
2587.00,0.657
2588.00,0.673
2589.00,0.668
2590.00,0.663
2591.00,0.667
2592.00,0.671
2593.00,0.695
2594.00,0.708
2595.00,0.677
2596.00,0.658
2597.00,0.663
2598.00,0.662
2599.00,0.670
2600.00,0.682
